{
    "visuals": [
        {
            "id": "periodic-sine-wave",
            "type": "plotly",
            "title": "A Simple Periodic Signal: The Sine Wave",
            "description": "A continuous sine wave repeating every T₀ seconds. Notice how every point x(t) is identical to x(t + T₀) — this is the defining property of periodicity.",
            "traces": [
                {
                    "mode": "lines",
                    "name": "sin(ω₀t)",
                    "line": {
                        "color": "#4f8cff",
                        "width": 2.5
                    },
                    "x": [
                        0,
                        0.0314,
                        0.0628,
                        0.0942,
                        0.1257,
                        0.1571,
                        0.1885,
                        0.2199,
                        0.2513,
                        0.2827,
                        0.3142,
                        0.3456,
                        0.377,
                        0.4084,
                        0.4398,
                        0.4712,
                        0.5027,
                        0.5341,
                        0.5655,
                        0.5969,
                        0.6283,
                        0.6597,
                        0.6912,
                        0.7226,
                        0.754,
                        0.7854,
                        0.8168,
                        0.8482,
                        0.8796,
                        0.9111,
                        0.9425,
                        0.9739,
                        1.0053,
                        1.0367,
                        1.0681,
                        1.0996,
                        1.131,
                        1.1624,
                        1.1938,
                        1.2252,
                        1.2566,
                        1.2881,
                        1.3195,
                        1.3509,
                        1.3823,
                        1.4137,
                        1.4451,
                        1.4765,
                        1.508,
                        1.5394,
                        1.5708,
                        1.6022,
                        1.6336,
                        1.665,
                        1.6965,
                        1.7279,
                        1.7593,
                        1.7907,
                        1.8221,
                        1.8535,
                        1.885,
                        1.9164,
                        1.9478,
                        1.9792,
                        2.0106,
                        2.042,
                        2.0735,
                        2.1049,
                        2.1363,
                        2.1677,
                        2.1991,
                        2.2305,
                        2.2619,
                        2.2934,
                        2.3248,
                        2.3562,
                        2.3876,
                        2.419,
                        2.4504,
                        2.4819,
                        2.5133,
                        2.5447,
                        2.5761,
                        2.6075,
                        2.6389,
                        2.6704,
                        2.7018,
                        2.7332,
                        2.7646,
                        2.796,
                        2.8274,
                        2.8588,
                        2.8903,
                        2.9217,
                        2.9531,
                        2.9845,
                        3.0159,
                        3.0473,
                        3.0788,
                        3.1102,
                        3.1416,
                        3.173,
                        3.2044,
                        3.2358,
                        3.2673,
                        3.2987,
                        3.3301,
                        3.3615,
                        3.3929,
                        3.4243,
                        3.4558,
                        3.4872,
                        3.5186,
                        3.55,
                        3.5814,
                        3.6128,
                        3.6442,
                        3.6757,
                        3.7071,
                        3.7385,
                        3.7699,
                        3.8013,
                        3.8327,
                        3.8642,
                        3.8956,
                        3.927,
                        3.9584,
                        3.9898,
                        4.0212,
                        4.0527,
                        4.0841,
                        4.1155,
                        4.1469,
                        4.1783,
                        4.2097,
                        4.2412,
                        4.2726,
                        4.304,
                        4.3354,
                        4.3668,
                        4.3982,
                        4.4296,
                        4.4611,
                        4.4925,
                        4.5239,
                        4.5553,
                        4.5867,
                        4.6181,
                        4.6496,
                        4.681,
                        4.7124,
                        4.7438,
                        4.7752,
                        4.8066,
                        4.8381,
                        4.8695,
                        4.9009,
                        4.9323,
                        4.9637,
                        4.9951,
                        5.0265,
                        5.058,
                        5.0894,
                        5.1208,
                        5.1522,
                        5.1836,
                        5.215,
                        5.2465,
                        5.2779,
                        5.3093,
                        5.3407,
                        5.3721,
                        5.4035,
                        5.435,
                        5.4664,
                        5.4978,
                        5.5292,
                        5.5606,
                        5.592,
                        5.6235,
                        5.6549,
                        5.6863,
                        5.7177,
                        5.7491,
                        5.7805,
                        5.8119,
                        5.8434,
                        5.8748,
                        5.9062,
                        5.9376,
                        5.969,
                        6.0004,
                        6.0319,
                        6.0633,
                        6.0947,
                        6.1261,
                        6.1575,
                        6.1889,
                        6.2204,
                        6.2518,
                        6.2832,
                        6.3146,
                        6.346,
                        6.3774,
                        6.4088,
                        6.4403,
                        6.4717,
                        6.5031,
                        6.5345,
                        6.5659,
                        6.5973,
                        6.6288,
                        6.6602,
                        6.6916,
                        6.723,
                        6.7544,
                        6.7858,
                        6.8173,
                        6.8487,
                        6.8801,
                        6.9115,
                        6.9429,
                        6.9743,
                        7.0058,
                        7.0372,
                        7.0686,
                        7.1,
                        7.1314,
                        7.1628,
                        7.1942,
                        7.2257,
                        7.2571,
                        7.2885,
                        7.3199,
                        7.3513,
                        7.3827,
                        7.4142,
                        7.4456,
                        7.477,
                        7.5084,
                        7.5398,
                        7.5712,
                        7.6027,
                        7.6341,
                        7.6655,
                        7.6969,
                        7.7283,
                        7.7597,
                        7.7911,
                        7.8226,
                        7.854,
                        7.8854,
                        7.9168,
                        7.9482,
                        7.9796,
                        8.0111,
                        8.0425,
                        8.0739,
                        8.1053,
                        8.1367,
                        8.1681,
                        8.1996,
                        8.231,
                        8.2624,
                        8.2938,
                        8.3252,
                        8.3566,
                        8.3881,
                        8.4195,
                        8.4509,
                        8.4823,
                        8.5137,
                        8.5451,
                        8.5765,
                        8.608,
                        8.6394,
                        8.6708,
                        8.7022,
                        8.7336,
                        8.765,
                        8.7965,
                        8.8279,
                        8.8593,
                        8.8907,
                        8.9221,
                        8.9535,
                        8.985,
                        9.0164,
                        9.0478,
                        9.0792,
                        9.1106,
                        9.142,
                        9.1735,
                        9.2049,
                        9.2363,
                        9.2677,
                        9.2991,
                        9.3305,
                        9.3619,
                        9.3934,
                        9.4248,
                        9.4562,
                        9.4876,
                        9.519,
                        9.5504,
                        9.5819,
                        9.6133,
                        9.6447,
                        9.6761,
                        9.7075,
                        9.7389,
                        9.7704,
                        9.8018,
                        9.8332,
                        9.8646,
                        9.896,
                        9.9274,
                        9.9588,
                        9.9903,
                        10.0217,
                        10.0531,
                        10.0845,
                        10.1159,
                        10.1473,
                        10.1788,
                        10.2102,
                        10.2416,
                        10.273,
                        10.3044,
                        10.3358,
                        10.3673,
                        10.3987,
                        10.4301,
                        10.4615,
                        10.4929,
                        10.5243,
                        10.5558,
                        10.5872,
                        10.6186,
                        10.65,
                        10.6814,
                        10.7128,
                        10.7442,
                        10.7757,
                        10.8071,
                        10.8385,
                        10.8699,
                        10.9013,
                        10.9327,
                        10.9642,
                        10.9956,
                        11.027,
                        11.0584,
                        11.0898,
                        11.1212,
                        11.1527,
                        11.1841,
                        11.2155,
                        11.2469,
                        11.2783,
                        11.3097,
                        11.3411,
                        11.3726,
                        11.404,
                        11.4354,
                        11.4668,
                        11.4982,
                        11.5296,
                        11.5611,
                        11.5925,
                        11.6239,
                        11.6553,
                        11.6867,
                        11.7181,
                        11.7496,
                        11.781,
                        11.8124,
                        11.8438,
                        11.8752,
                        11.9066,
                        11.9381,
                        11.9695,
                        12.0009,
                        12.0323,
                        12.0637,
                        12.0951,
                        12.1265,
                        12.158,
                        12.1894,
                        12.2208,
                        12.2522,
                        12.2836,
                        12.315,
                        12.3465,
                        12.3779,
                        12.4093,
                        12.4407,
                        12.4721,
                        12.5035,
                        12.535
                    ],
                    "y": [
                        0,
                        0.0314,
                        0.0628,
                        0.0941,
                        0.1253,
                        0.1564,
                        0.1874,
                        0.2181,
                        0.2487,
                        0.279,
                        0.309,
                        0.3387,
                        0.3681,
                        0.3971,
                        0.4258,
                        0.454,
                        0.4818,
                        0.509,
                        0.5358,
                        0.5621,
                        0.5878,
                        0.6129,
                        0.6374,
                        0.6613,
                        0.6845,
                        0.7071,
                        0.729,
                        0.7501,
                        0.7705,
                        0.7902,
                        0.809,
                        0.8271,
                        0.8443,
                        0.8607,
                        0.8763,
                        0.891,
                        0.9048,
                        0.9178,
                        0.9298,
                        0.9409,
                        0.9511,
                        0.9603,
                        0.9686,
                        0.9759,
                        0.9823,
                        0.9877,
                        0.9921,
                        0.9956,
                        0.998,
                        0.9995,
                        1,
                        0.9995,
                        0.998,
                        0.9956,
                        0.9921,
                        0.9877,
                        0.9823,
                        0.9759,
                        0.9686,
                        0.9603,
                        0.9511,
                        0.9409,
                        0.9298,
                        0.9178,
                        0.9048,
                        0.891,
                        0.8763,
                        0.8607,
                        0.8443,
                        0.8271,
                        0.809,
                        0.7902,
                        0.7705,
                        0.7501,
                        0.729,
                        0.7071,
                        0.6845,
                        0.6613,
                        0.6374,
                        0.6129,
                        0.5878,
                        0.5621,
                        0.5358,
                        0.509,
                        0.4818,
                        0.454,
                        0.4258,
                        0.3971,
                        0.3681,
                        0.3387,
                        0.309,
                        0.279,
                        0.2487,
                        0.2181,
                        0.1874,
                        0.1564,
                        0.1253,
                        0.0941,
                        0.0628,
                        0.0314,
                        0,
                        -0.0314,
                        -0.0628,
                        -0.0941,
                        -0.1253,
                        -0.1564,
                        -0.1874,
                        -0.2181,
                        -0.2487,
                        -0.279,
                        -0.309,
                        -0.3387,
                        -0.3681,
                        -0.3971,
                        -0.4258,
                        -0.454,
                        -0.4818,
                        -0.509,
                        -0.5358,
                        -0.5621,
                        -0.5878,
                        -0.6129,
                        -0.6374,
                        -0.6613,
                        -0.6845,
                        -0.7071,
                        -0.729,
                        -0.7501,
                        -0.7705,
                        -0.7902,
                        -0.809,
                        -0.8271,
                        -0.8443,
                        -0.8607,
                        -0.8763,
                        -0.891,
                        -0.9048,
                        -0.9178,
                        -0.9298,
                        -0.9409,
                        -0.9511,
                        -0.9603,
                        -0.9686,
                        -0.9759,
                        -0.9823,
                        -0.9877,
                        -0.9921,
                        -0.9956,
                        -0.998,
                        -0.9995,
                        -1,
                        -0.9995,
                        -0.998,
                        -0.9956,
                        -0.9921,
                        -0.9877,
                        -0.9823,
                        -0.9759,
                        -0.9686,
                        -0.9603,
                        -0.9511,
                        -0.9409,
                        -0.9298,
                        -0.9178,
                        -0.9048,
                        -0.891,
                        -0.8763,
                        -0.8607,
                        -0.8443,
                        -0.8271,
                        -0.809,
                        -0.7902,
                        -0.7705,
                        -0.7501,
                        -0.729,
                        -0.7071,
                        -0.6845,
                        -0.6613,
                        -0.6374,
                        -0.6129,
                        -0.5878,
                        -0.5621,
                        -0.5358,
                        -0.509,
                        -0.4818,
                        -0.454,
                        -0.4258,
                        -0.3971,
                        -0.3681,
                        -0.3387,
                        -0.309,
                        -0.279,
                        -0.2487,
                        -0.2181,
                        -0.1874,
                        -0.1564,
                        -0.1253,
                        -0.0941,
                        -0.0628,
                        -0.0314,
                        0,
