{
    "visuals": [
        {
            "id": "ideal-voltage-transfer",
            "type": "plotly",
            "title": "Ideal Voltage Amplifier Transfer",
            "description": "Linear relationship V_out = A_V × V_in with no saturation or distortion.",
            "traces": [
                {
                    "x": [
                        -1,
                        -0.9798,
                        -0.9596,
                        -0.9394,
                        -0.9192,
                        -0.899,
                        -0.8788,
                        -0.8586,
                        -0.8384,
                        -0.8182,
                        -0.798,
                        -0.7778,
                        -0.7576,
                        -0.7374,
                        -0.7172,
                        -0.697,
                        -0.6768,
                        -0.6566,
                        -0.6364,
                        -0.6162,
                        -0.596,
                        -0.5758,
                        -0.5556,
                        -0.5354,
                        -0.5152,
                        -0.4949,
                        -0.4747,
                        -0.4545,
                        -0.4343,
                        -0.4141,
                        -0.3939,
                        -0.3737,
                        -0.3535,
                        -0.3333,
                        -0.3131,
                        -0.2929,
                        -0.2727,
                        -0.2525,
                        -0.2323,
                        -0.2121,
                        -0.1919,
                        -0.1717,
                        -0.1515,
                        -0.1313,
                        -0.1111,
                        -0.0909,
                        -0.0707,
                        -0.0505,
                        -0.0303,
                        -0.0101,
                        0.0101,
                        0.0303,
                        0.0505,
                        0.0707,
                        0.0909,
                        0.1111,
                        0.1313,
                        0.1515,
                        0.1717,
                        0.1919,
                        0.2121,
                        0.2323,
                        0.2525,
                        0.2727,
                        0.2929,
                        0.3131,
                        0.3333,
                        0.3535,
                        0.3737,
                        0.3939,
                        0.4141,
                        0.4343,
                        0.4545,
                        0.4747,
                        0.4949,
                        0.5152,
                        0.5354,
                        0.5556,
                        0.5758,
                        0.596,
                        0.6162,
                        0.6364,
                        0.6566,
                        0.6768,
                        0.697,
                        0.7172,
                        0.7374,
                        0.7576,
                        0.7778,
                        0.798,
                        0.8182,
                        0.8384,
                        0.8586,
                        0.8788,
                        0.899,
                        0.9192,
                        0.9394,
                        0.9596,
                        0.9798,
                        1
                    ],
                    "y": [
                        -10,
                        -9.8,
                        -9.6,
                        -9.39,
                        -9.19,
                        -8.99,
                        -8.79,
                        -8.59,
                        -8.38,
                        -8.18,
                        -7.98,
                        -7.78,
                        -7.58,
                        -7.37,
                        -7.17,
                        -6.97,
                        -6.77,
                        -6.57,
                        -6.36,
                        -6.16,
                        -5.96,
                        -5.76,
                        -5.56,
                        -5.35,
                        -5.15,
                        -4.95,
                        -4.75,
                        -4.54,
                        -4.34,
                        -4.14,
                        -3.94,
                        -3.74,
                        -3.53,
                        -3.33,
                        -3.13,
                        -2.93,
                        -2.73,
                        -2.52,
                        -2.32,
                        -2.12,
                        -1.92,
                        -1.72,
                        -1.51,
                        -1.31,
                        -1.11,
                        -0.91,
                        -0.71,
                        -0.5,
                        -0.3,
                        -0.1,
                        0.1,
                        0.3,
                        0.51,
                        0.71,
                        0.91,
                        1.11,
                        1.31,
                        1.52,
                        1.72,
                        1.92,
                        2.12,
                        2.32,
                        2.53,
                        2.73,
                        2.93,
                        3.13,
                        3.33,
                        3.53,
                        3.74,
                        3.94,
                        4.14,
                        4.34,
                        4.55,
                        4.75,
                        4.95,
                        5.15,
                        5.35,
                        5.56,
                        5.76,
                        5.96,
                        6.16,
                        6.36,
                        6.57,
                        6.77,
                        6.97,
                        7.17,
                        7.37,
                        7.58,
                        7.78,
                        7.98,
                        8.18,
                        8.38,
                        8.59,
                        8.79,
                        8.99,
                        9.19,
                        9.39,
                        9.6,
                        9.8,
                        10
                    ],
                    "mode": "lines",
                    "name": "A_V = 10",
                    "line": {
                        "color": "#4f8cff",
                        "width": 2.5
                    }
                }
            ],
            "layout": {
                "xaxis": {
                    "title": "V_in (V)"
                },
                "yaxis": {
                    "title": "V_out (V)"
                },
                "showlegend": false
            }
        },
        {
            "id": "practical-saturation",
            "type": "plotly",
            "title": "Practical Amplifier: Saturation Limits",
            "description": "Real amplifiers clip at ±V_CC. The linear region is bounded by the supply rails.",
            "traces": [
                {
                    "x": [
                        -2,
                        -1.9799,
                        -1.9598,
                        -1.9397,
                        -1.9196,
                        -1.8995,
                        -1.8794,
                        -1.8593,
                        -1.8392,
                        -1.8191,
                        -1.799,
                        -1.7789,
                        -1.7588,
                        -1.7387,
                        -1.7186,
                        -1.6985,
                        -1.6784,
                        -1.6583,
                        -1.6382,
                        -1.6181,
                        -1.598,
                        -1.5779,
                        -1.5578,
                        -1.5377,
                        -1.5176,
                        -1.4975,
                        -1.4774,
                        -1.4573,
                        -1.4372,
                        -1.4171,
                        -1.397,
                        -1.3769,
                        -1.3568,
                        -1.3367,
                        -1.3166,
                        -1.2965,
                        -1.2764,
                        -1.2563,
                        -1.2362,
                        -1.2161,
                        -1.196,
                        -1.1759,
                        -1.1558,
                        -1.1357,
                        -1.1156,
                        -1.0955,
                        -1.0754,
                        -1.0553,
                        -1.0352,
                        -1.0151,
                        -0.995,
                        -0.9749,
                        -0.9548,
                        -0.9347,
                        -0.9146,
                        -0.8945,
                        -0.8744,
                        -0.8543,
                        -0.8342,
                        -0.8141,
                        -0.794,
                        -0.7739,
                        -0.7538,
                        -0.7337,
                        -0.7136,
                        -0.6935,
                        -0.6734,
                        -0.6533,
                        -0.6332,
                        -0.6131,
                        -0.593,
                        -0.5729,
                        -0.5528,
                        -0.5327,
                        -0.5126,
                        -0.4925,
                        -0.4724,
                        -0.4523,
                        -0.4322,
                        -0.4121,
                        -0.392,
                        -0.3719,
                        -0.3518,
                        -0.3317,
                        -0.3116,
                        -0.2915,
                        -0.2714,
                        -0.2513,
                        -0.2312,
                        -0.2111,
                        -0.191,
                        -0.1709,
                        -0.1508,
                        -0.1307,
                        -0.1106,
                        -0.0905,
                        -0.0704,
                        -0.0503,
                        -0.0302,
                        -0.0101,
                        0.0101,
                        0.0302,
                        0.0503,
                        0.0704,
                        0.0905,
                        0.1106,
                        0.1307,
                        0.1508,
                        0.1709,
                        0.191,
                        0.2111,
                        0.2312,
                        0.2513,
                        0.2714,
                        0.2915,
                        0.3116,
                        0.3317,
                        0.3518,
                        0.3719,
                        0.392,
                        0.4121,
                        0.4322,
                        0.4523,
                        0.4724,
                        0.4925,
                        0.5126,
                        0.5327,
                        0.5528,
                        0.5729,
                        0.593,
                        0.6131,
                        0.6332,
                        0.6533,
                        0.6734,
                        0.6935,
                        0.7136,
                        0.7337,
                        0.7538,
                        0.7739,
                        0.794,
                        0.8141,
                        0.8342,
                        0.8543,
                        0.8744,
                        0.8945,
                        0.9146,
                        0.9347,
                        0.9548,
                        0.9749,
                        0.995,
                        1.0151,
                        1.0352,
                        1.0553,
                        1.0754,
                        1.0955,
                        1.1156,
                        1.1357,
                        1.1558,
                        1.1759,
                        1.196,
                        1.2161,
                        1.2362,
                        1.2563,
                        1.2764,
                        1.2965,
                        1.3166,
                        1.3367,
                        1.3568,
                        1.3769,
                        1.397,
                        1.4171,
                        1.4372,
                        1.4573,
                        1.4774,
                        1.4975,
                        1.5176,
                        1.5377,
                        1.5578,
                        1.5779,
                        1.598,
                        1.6181,
                        1.6382,
                        1.6583,
                        1.6784,
                        1.6985,
                        1.7186,
                        1.7387,
                        1.7588,
                        1.7789,
                        1.799,
                        1.8191,
                        1.8392,
                        1.8593,
                        1.8794,
                        1.8995,
                        1.9196,
                        1.9397,
                        1.9598,
                        1.9799,
                        2
                    ],
                    "y": [
                        -12,
                        -12,
                        -12,
                        -12,
                        -12,
                        -12,
                        -12,
                        -12,
                        -12,
                        -12,
                        -12,
                        -12,
                        -12,
                        -12,
                        -12,
                        -12,
                        -12,
                        -12,
                        -12,
                        -12,
                        -12,
                        -12,
                        -12,
                        -12,
                        -12,
                        -12,
                        -12,
                        -12,
                        -12,
                        -12,
                        -12,
                        -12,
                        -12,
                        -12,
                        -12,
                        -12,
                        -12,
                        -12,
                        -12,
                        -12,
                        -11.96,
                        -11.76,
                        -11.56,
                        -11.36,
                        -11.16,
                        -10.95,
                        -10.75,
                        -10.55,
                        -10.35,
                        -10.15,
                        -9.95,
                        -9.75,
                        -9.55,
                        -9.35,
                        -9.15,
                        -8.94,
                        -8.74,
                        -8.54,
                        -8.34,
                        -8.14,
                        -7.94,
                        -7.74,
                        -7.54,
                        -7.34,
                        -7.14,
                        -6.93,
                        -6.73,
                        -6.53,
                        -6.33,
                        -6.13,
                        -5.93,
                        -5.73,
                        -5.53,
                        -5.33,
                        -5.13,
                        -4.92,
                        -4.72,
                        -4.52,
                        -4.32,
                        -4.12,
                        -3.92,
                        -3.72,
                        -3.52,
                        -3.32,
                        -3.12,
                        -2.91,
                        -2.71,
                        -2.51,
                        -2.31,
                        -2.11,
                        -1.91,
                        -1.71,
                        -1.51,
                        -1.31,
                        -1.11,
                        -0.9,
                        -0.7,
                        -0.5,
                        -0.3,
                        -0.1,
                        0.1,
                        0.3,
                        0.5,
                        0.7,
                        0.91,
                        1.11,
                        1.31,
                        1.51,
                        1.71,
                        1.91,
                        2.11,
                        2.31,
                        2.51,
                        2.71,
                        2.92,
                        3.12,
                        3.32,
                        3.52,
                        3.72,
                        3.92,
                        4.12,
                        4.32,
                        4.52,
                        4.72,
                        4.93,
                        5.13,
                        5.33,
                        5.53,
                        5.73,
                        5.93,
                        6.13,
                        6.33,
                        6.53,
                        6.73,
                        6.94,
                        7.14,
                        7.34,
                        7.54,
                        7.74,
                        7.94,
                        8.14,
                        8.34,
                        8.54,
                        8.74,
                        8.95,
                        9.15,
                        9.35,
                        9.55,
                        9.75,
                        9.95,
                        10.15,
                        10.35,
                        10.55,
                        10.75,
                        10.95,
                        11.16,
                        11.36,
                        11.56,
                        11.76,
                        11.96,
                        12,
                        12,
                        12,
                        12,
                        12,
                        12,
                        12,
                        12,
                        12,
                        12,
                        12,
                        12,
                        12,
                        12,
                        12,
                        12,
                        12,
                        12,
                        12,
                        12,
                        12,
                        12,
                        12,
                        12,
                        12,
                        12,
                        12,
                        12,
                        12,
                        12,
                        12,
                        12,
                        12,
                        12,
                        12,
                        12,
                        12,
                        12,
                        12,
                        12
                    ],
